LabVIEW Measurement	
Writer_Version	2
Reader_Version	2
Separator	Tab
Decimal_Separator	,
Multi_Headings	Yes
X_Columns	No
Time_Pref	Relative
Operator	OLGIL12
Date	2023/10/10
Time	10:43:34,9660944938659667969
***End_of_Header***	
	
Channels	2		
Samples	120	120	
Date	2023/10/10	2023/10/10	
Time	10:43:34,9660944938659667969	10:43:34,9660944938659667969	
X_Dimension	Time	Time	
X0	0,0000000000000000E+0	0,0000000000000000E+0	
Delta_X	1,000000	1,000000	
***End_of_Header***			
X_Value	Untitled	Untitled 1	Comment
	0,000000	-1,240000E-8
	0,050000	-5,000000E-9
	0,100000	-2,500000E-9
	0,150000	-2,500000E-9
	0,200000	9,900000E-9
	0,250000	4,460000E-8
	0,300000	1,740000E-8
	0,350000	3,220000E-8
	0,400000	-5,000000E-9
	0,450000	3,970000E-8
	0,500000	1,240000E-8
	0,550000	1,740000E-8
	0,600000	-9,900000E-9
	0,650000	-5,000000E-9
	0,700000	2,230000E-8
	0,750000	5,000000E-9
	0,800000	4,960000E-8
	0,850000	4,960000E-8
	0,900000	1,490000E-8
	0,950000	-1,490000E-8
	1,000000	5,700000E-8
	1,050000	9,900000E-9
	1,100000	2,480000E-8
	1,150000	9,920000E-8
	1,200000	1,240000E-8
	1,250000	6,940000E-8
	1,300000	2,980000E-8
	1,350000	-7,400000E-9
	1,400000	-1,740000E-8
	1,450000	-3,470000E-8
	1,500000	-9,900000E-9
	1,550000	5,950000E-8
	1,600000	1,116000E-7
	1,650000	1,490000E-8
	1,700000	1,066000E-7
	1,750000	-3,220000E-8
	1,800000	-2,730000E-8
	1,850000	7,930000E-8
	1,900000	6,450000E-8
	1,950000	4,210000E-8
	2,000000	9,900000E-9
	2,050000	7,690000E-8
	2,100000	3,470000E-8
	2,150000	1,490000E-8
	2,200000	3,720000E-8
	2,250000	3,470000E-8
	2,300000	-9,900000E-9
	2,350000	5,700000E-8
	2,400000	7,400000E-9
	2,450000	-5,000000E-9
	2,500000	1,980000E-8
	2,550000	-9,920000E-8
	2,600000	-4,710000E-8
	2,650000	-9,170000E-8
	2,700000	-2,730000E-8
	2,750000	-6,450000E-8
	2,800000	-2,500000E-9
	2,850000	7,400000E-9
	2,900000	-3,470000E-8
	2,950000	-5,000000E-9
	3,000000	1,017000E-7
	3,050000	-3,220000E-8
	3,100000	3,720000E-8
	3,150000	2,230000E-8
	3,200000	-4,960000E-8
	3,250000	-2,500000E-9
	3,300000	-1,490000E-8
	3,350000	-2,730000E-8
	3,400000	4,960000E-8
	3,450000	-2,500000E-9
	3,500000	-2,730000E-8
	3,550000	-4,210000E-8
	3,600000	1,740000E-8
	3,650000	4,960000E-8
	3,700000	-5,000000E-9
	3,750000	9,900000E-9
	3,800000	-4,460000E-8
	3,850000	6,690000E-8
	3,900000	-9,900000E-9
	3,950000	3,220000E-8
	4,000000	-5,700000E-8
	4,050000	-2,730000E-8
	4,100000	7,400000E-9
	4,150000	3,720000E-8
	4,200000	-2,500000E-9
	4,250000	1,490000E-8
	4,300000	-2,230000E-8
	4,350000	8,930000E-8
	4,400000	1,740000E-8
	4,450000	3,720000E-8
	4,500000	-5,000000E-9
	4,550000	4,460000E-8
	4,600000	-2,230000E-8
	4,650000	-2,480000E-8
	4,700000	5,700000E-8
	4,750000	2,230000E-8
	4,800000	2,230000E-8
	4,850000	4,460000E-8
	4,900000	-5,210000E-8
	4,950000	9,900000E-9
	5,000000	-5,000000E-9
	5,050000	-3,220000E-8
	5,100000	1,240000E-8
	5,150000	-4,460000E-8
	5,200000	-5,210000E-8
	5,250000	-4,210000E-8
	5,300000	5,950000E-8
	5,350000	-3,470000E-8
	5,400000	3,720000E-8
	5,450000	-5,450000E-8
	5,500000	7,190000E-8
	5,550000	3,720000E-8
	5,600000	-1,490000E-8
	5,650000	5,210000E-8
	5,700000	6,940000E-8
	5,750000	5,210000E-8
	5,800000	4,210000E-8
	5,850000	3,220000E-8
	5,900000	5,700000E-8
	5,950000	-2,230000E-8

