Data from USB4F104151__0__22-41-35-582.txt Node

Date: Tue Mar 12 22:41:35 EDT 2024
User: lauri
Spectrometer: USB4F10415
Trigger mode: 4
Integration Time (sec): 1,000000E1
Scans to average: 1
Electric dark correction enabled: true
Nonlinearity correction enabled: false
Boxcar width: 0
XAxis mode: Wavelengths
Number of Pixels in Spectrum: 3648
>>>>>Begin Spectral Data<<<<<
178,204	-2387,76
178,424	-2387,76
178,644	-2387,76
178,864	-2430,77
179,084	-2430,77
179,304	448,68
179,524	-135
179,744	65,71
179,964	-446,29
180,184	180,39
180,404	-3,93
180,624	-517,97
180,844	186,54
181,064	57,51
181,283	276,65
181,503	-231,25
181,723	118,95
181,943	-239,44
182,163	475,3
182,383	-796,49
182,602	-438,09
182,822	497,83
183,042	155,82
183,262	-636,75
183,482	-651,08
183,701	49,32
183,921	739,49
184,141	-411,47
184,361	-501,58
184,58	53,42
184,8	118,95
185,02	-352,08
185,239	-143,19
185,459	20,65
185,679	649,38
185,898	-610,12
186,118	-794,44
186,338	465,06
186,557	741,54
186,777	-298,83
186,997	-968,52
187,216	47,27
187,436	641,18
187,655	-323,41
187,875	65,71
188,095	518,31
188,314	317,61
188,534	92,33
188,753	-546,64
188,973	456,87
189,192	841,89
189,412	-460,62
189,631	-649,04
189,851	350,37
190,07	540,83
190,29	-190,29
190,509	-872,26
190,729	420
190,948	200,87
191,168	-192,34
191,387	-790,35
191,607	22,7
191,826	348,33
192,045	-282,45
192,265	-468,81
192,484	612,51
192,704	63,66
192,923	-728,91
193,142	-429,9
193,362	161,96
193,581	129,19
193,8	-118,61
194,02	-751,43
194,239	-237,39
194,458	692,38
194,678	-153,43
194,897	-773,96
195,116	16,55
195,335	223,4
195,555	-642,89
195,774	-898,89
195,993	166,06
196,212	-135
196,432	-642,89
196,651	-843,59
196,87	-317,26
197,089	528,55
197,308	-546,64
197,528	-800,59
197,747	-8,02
197,966	782,49
198,185	303,27
198,404	-833,35
198,623	-12,12
198,842	-94,04
199,062	-364,37
199,281	-145,24
199,5	51,37
199,719	188,58
199,938	-794,44
200,157	-259,92
200,376	694,43
200,595	749,73
200,814	-472,91
201,033	-710,47
201,252	643,23
201,471	274,6
201,69	-714,57
201,909	133,29
202,128	266,41
202,347	-139,09
202,566	-581,45
202,785	-778,06
203,004	-85,84
203,223	-26,45
203,442	-642,89
203,661	-894,79
203,879	-73,56
204,098	467,11
204,317	-673,61
204,536	125,1
204,755	450,72
204,974	69,8
205,193	-935,75
205,411	-173,91
205,63	123,05
205,849	702,62
206,068	-32,6
206,287	-646,99
206,505	512,16
206,724	96,43
206,943	-704,33
207,162	-769,87
207,381	-212,82
207,599	16,55
207,818	96,43
208,037	-866,12
208,255	30,89
208,474	-81,75
208,693	-431,95
208,911	-438,09
209,13	123,05
209,349	618,66
209,567	-315,22
209,786	-819,02
210,005	-153,43
210,223	-270,16
210,442	-972,61
210,661	-1038,15
210,879	368,81
211,098	569,51
211,316	-362,32
211,535	-667,47
211,753	-132,95
211,972	686,24
212,191	-515,92
212,409	-300,88
212,628	145,58
212,846	-241,49
213,065	-937,8
213,283	-390,99
213,502	18,6
213,72	22,7
213,938	-896,84
214,157	-687,95
214,375	43,18
214,594	913,56
214,812	-610,12
215,031	-702,28
215,249	-83,8
215,467	-12,12
215,686	-284,5
215,904	-474,96
216,122	266,41
216,341	563,36
216,559	399,52
216,778	-325,46
216,996	346,28
217,214	397,48
217,432	-411,47
217,651	-870,22
217,869	-89,94
218,087	-18,26
218,306	-989
218,524	-689,99
218,742	-3,93
218,96	811,17
219,179	-671,56
219,397	-1003,33
219,615	264,36
219,833	-104,28
220,051	-853,83
220,27	194,73
220,488	-18,26
220,706	166,06
220,924	-845,64
221,142	-831,3
221,36	69,8
221,578	389,28
221,796	-839,5
222,015	-544,59
222,233	170,15
222,451	467,11
222,669	-323,41
222,887	-343,89
223,105	184,49
223,323	-118,61
223,541	-835,4
223,759	-18,26
223,977	-233,3
224,195	34,99
224,413	-708,43
224,631	-180,05
224,849	-151,38
225,067	172,2
225,285	-362,32
225,503	-773,96
225,721	-360,27
225,939	272,55
226,157	-659,28
226,375	520,35
226,592	-10,07
226,81	-110,42
227,028	39,08
227,246	-808,78
227,464	131,24
227,682	22,7
227,9	-577,36
228,117	-282,45
228,335	202,92
228,553	233,64
228,771	-927,56
228,989	-896,84
229,206	176,3
229,424	-257,87
229,642	-1021,77
229,86	-913,22
230,077	-30,55
230,295	129,19
230,513	-100,18
230,731	-698,19
230,948	-69,46
231,166	-118,61
231,384	-921,42
231,601	-616,27
231,819	200,87
232,037	-202,58
232,254	-221,01
232,472	-1138,5
232,689	-212,82
232,907	307,37
233,125	-1003,33
233,342	-702,28
233,56	28,84
233,777	-374,61
233,995	-952,13
234,213	-487,25
234,43	202,92
234,648	155,82
234,865	-902,98
235,083	-601,93
235,3	-354,13
235,518	-304,98
235,735	-634,7
235,953	-81,75
236,17	911,52
236,388	-366,42
236,605	-132,95
236,822	-436,05
237,04	252,07
237,257	-145,24
237,475	-513,87
237,692	-948,04
237,909	839,84
238,127	207,02
238,344	-427,85
238,562	-147,28
238,779	848,03
238,996	-577,36
239,214	-491,34
239,431	-780,11
239,648	-296,78
239,865	73,9
240,083	-644,94
240,3	-821,06
240,517	536,74
240,735	96,43
240,952	-204,63
241,169	-819,02
241,386	284,84
241,603	-20,31
241,821	-829,26
242,038	-634,7
242,255	417,96
242,472	-22,36
242,689	-681,8
242,907	-536,4
243,124	-298,83
243,341	438,44
243,558	-356,18
243,775	-708,43
243,992	-102,23
244,209	59,56
244,426	-411,47
244,643	-517,97
244,86	43,18
245,078	92,33
245,295	-491,34
245,512	-526,16
245,729	-573,26
245,946	-120,66
246,163	-765,77
246,38	-456,53
246,597	-94,04
246,814	-173,91
247,031	-517,97
247,248	-882,5
247,464	143,53
247,681	-122,71
247,898	-673,61
248,115	-374,61
248,332	-327,5
248,549	342,18
248,766	-36,69
248,983	-767,82
249,2	96,43
249,417	333,99
249,633	-563,02
249,85	-810,82
250,067	-552,78
250,284	-325,46
250,501	-773,96
250,717	-710,47
250,934	28,84
251,151	182,44
251,368	-333,65
251,585	-509,77
251,801	-12,12
252,018	34,99
252,235	-266,07
252,451	-986,95
252,668	-272,21
252,885	-374,61
253,102	-675,66
253,318	-634,7
253,535	-544,59
253,752	-522,06
253,968	-341,84
254,185	-937,8
254,401	-38,74
254,618	350,37
254,835	-558,92
255,051	-778,06
255,268	276,65
255,484	-178
255,701	-948,04
255,917	-499,53
256,134	139,43
256,351	260,26
256,567	-905,03
256,784	-237,39
257	-626,51
257,217	309,41
257,433	-264,02
257,65	-796,49
257,866	-10,07
258,082	20,65
258,299	-659,28
258,515	-233,3
258,732	399,52
258,948	-292,69
259,165	-632,65
259,381	-651,08
259,597	217,26
259,814	182,44
260,03	-722,76
260,246	-743,24
260,463	-137,04
260,679	-83,8
260,895	-309,07
261,112	-325,46
261,328	-10,07
261,544	-30,55
261,761	-800,59
261,977	-642,89
262,193	-401,23
262,409	43,18
262,626	-532,3
262,842	-436,05
263,058	100,52
263,274	-132,95
263,49	-792,39
263,707	-1062,73
263,923	225,45
264,139	-362,32
264,355	-837,45
264,571	186,54
264,787	-135
265,004	-102,23
265,22	-603,98
265,436	-501,58
265,652	-280,4
265,868	553,12
266,084	-272,21
266,3	-986,95
266,516	-32,6
266,732	762,02
266,948	-696,14
267,164	-900,94
267,38	-167,76
267,596	-3,93
267,812	-419,66
268,028	-444,24
268,244	-331,6
268,46	18,6
268,676	-653,13
268,892	-395,09
269,108	-8,02
269,324	-520,01
269,54	-919,37
269,756	-642,89
269,972	-362,32
270,188	-159,57
270,403	-790,35
270,619	-1079,11
270,835	-210,77
271,051	-8,02
271,267	-1099,59
271,483	-737,1
271,698	-239,44
271,914	-278,35
272,13	-485,2
272,346	-560,97
272,562	-261,97
272,777	137,38
272,993	231,59
273,209	-896,84
273,425	-61,27
273,64	-397,14
273,856	-1058,63
274,072	-1294,15
274,287	368,81
274,503	-536,4
274,719	-657,23
274,934	-497,49
275,15	422,05
275,366	-429,9
275,581	-900,94
275,797	-900,94
276,012	84,14
276,228	-212,82
276,444	-1009,48
276,659	-233,3
276,875	77,99
277,09	8,36
277,306	-470,86
277,521	-626,51
277,737	-409,42
277,952	-372,56
278,168	-722,76
278,383	-278,35
278,599	-466,77
278,814	350,37
279,03	-1128,26
279,245	-354,13
279,461	-57,17
279,676	-91,99
279,892	-665,42
280,107	-819,02
280,322	-434
280,538	252,07
280,753	-1130,31
280,969	-677,71
281,184	-198,48
281,399	-223,06
281,615	-761,67
281,83	-526,16
282,045	-442,19
282,26	-360,27
282,476	-1060,68
282,691	-59,22
282,906	32,94
283,122	-671,56
283,337	-522,06
283,552	-954,18
283,767	-405,33
283,983	190,63
284,198	-857,93
284,413	-1093,44
284,628	-427,85
284,843	-395,09
285,058	-685,9
285,274	-390,99
285,489	32,94
285,704	-644,94
285,919	-438,09
286,134	-989
286,349	131,24
286,564	-91,99
286,779	-595,79
286,995	-298,83
287,21	-698,19
287,425	-704,33
287,64	-620,36
287,855	-145,24
288,07	-429,9
288,285	-214,87
288,5	-827,21
288,715	-182,1
288,93	-694,09
289,145	-733
289,36	-771,91
289,575	-468,81
289,79	227,5
290,004	77,99
290,219	-200,53
290,434	-298,83
290,649	-96,08
290,864	-143,19
291,079	-651,08
291,294	-1167,17
291,509	-395,09
291,724	-51,03
291,938	-853,83
292,153	-659,28
292,368	37,03
292,583	-352,08
292,798	-780,11
293,012	-716,62
293,227	-214,87
293,442	-282,45
293,657	-503,63
293,871	-614,22
294,086	-180,05
294,301	-67,41
294,516	-767,82
294,73	-36,69
294,945	-165,71
295,16	-110,42
295,374	-427,85
295,589	-630,6
295,804	-665,42
296,018	-878,41
296,233	-612,17
296,447	125,1
296,662	-59,22
296,877	51,37
297,091	-497,49
297,306	-663,37
297,52	-311,12
297,735	282,79
297,949	-481,1
298,164	-1400,64
298,378	-649,04
298,593	-610,12
298,807	-477,01
299,022	-423,76
299,236	383,14
299,451	-202,58
299,665	-661,32
299,88	-399,18
300,094	-114,52
300,309	-114,52
300,523	-655,18
300,737	-767,82
300,952	-14,17
301,166	-16,21
301,381	-493,39
301,595	-849,74
301,809	-329,55
302,024	-440,14
302,238	-702,28
302,452	-329,55
302,667	-157,52
302,881	207,02
303,095	-321,36
303,309	-405,33
303,524	-554,83
303,738	-612,17
303,952	-712,52
304,166	88,23
304,381	-888,65
304,595	-85,84
304,809	-757,58
305,023	-714,57
305,237	-548,68
305,452	-835,4
305,666	-630,6
305,88	-190,29
306,094	-106,32
306,308	-380,75
306,522	-542,54
306,736	-415,57
306,95	34,99
307,164	53,42
307,379	-626,51
307,593	-704,33
307,807	-442,19
308,021	-313,17
308,235	-300,88
308,449	-1091,4
308,663	-323,41
308,877	1480,85
309,091	-597,84
309,305	-552,78
309,519	-448,33
309,733	-298,83
309,947	-319,31
310,161	-819,02
310,374	-145,24
310,588	-284,5
310,802	-1036,1
311,016	-745,29
311,23	-233,3
311,444	-186,19
311,658	16,55
311,872	-257,87
312,085	-163,67
312,299	-368,46
312,513	-141,14
312,727	-1232,71
312,941	-53,08
313,154	-311,12
313,368	-757,58
313,582	-692,04
313,796	-636,75
314,009	-593,74
314,223	53,42
314,437	-544,59
314,651	-266,07
314,864	-544,59
315,078	-1154,88
315,292	-85,84
315,505	-395,09
315,719	-280,4
315,933	-677,71
316,146	-653,13
316,36	-91,99
316,573	-622,41
316,787	-397,14
317,001	-1103,68
317,214	-714,57
317,428	147,62
317,641	-692,04
317,855	-905,03
318,068	-470,86
318,282	-253,78
318,495	-100,18
318,709	-782,15
318,922	-227,15
319,136	-73,56
319,349	-192,34
319,563	-839,5
319,776	118,95
319,99	-280,4
320,203	-749,39
320,417	-728,91
320,63	-376,66
320,843	-171,86
321,057	-339,79
321,27	-421,71
321,483	-26,45
321,697	-538,45
321,91	-710,47
322,124	-823,11
322,337	-413,52
322,55	-407,38
322,763	-618,32
322,977	-941,89
323,19	-579,4
323,403	-337,74
323,617	-749,39
323,83	-165,71
324,043	317,61
324,256	57,51
324,469	-1179,46
324,683	-221,01
324,896	209,06
325,109	-632,65
325,322	-640,84
325,535	-378,7
325,748	364,71
325,962	-255,83
326,175	-528,21
326,388	-939,85
326,601	-526,16
326,814	-270,16
327,027	-225,11
327,24	-59,22
327,453	-335,7
327,666	104,62
327,879	-616,27
328,092	-696,14
328,305	241,83
328,518	-288,59
328,731	-530,25
328,944	-560,97
329,157	-130,9
329,37	-354,13
329,583	-304,98
329,796	-286,54
330,009	-923,46
330,222	258,21
330,435	-565,07
330,648	-427,85
330,861	116,9
331,073	-255,83
331,286	-337,74
331,499	-1087,3
331,712	-67,41
331,925	39,08
332,138	-251,73
332,35	-986,95
332,563	-167,76
332,776	403,62
332,989	-497,49
333,202	-1040,2
333,414	147,62
333,627	-593,74
333,84	-898,89
334,053	-290,64
334,265	-423,76
334,478	-311,12
334,691	-945,99
334,903	-603,98
335,116	-513,87
335,329	-587,6
335,541	-218,96
335,754	794,78
335,966	-135
336,179	-85,84
336,392	-687,95
336,604	-552,78
336,817	-520,01
337,029	-237,39
337,242	-1091,4
337,454	-411,47
337,667	-36,69
337,88	18,6
338,092	-313,17
338,305	-632,65
338,517	-669,52
338,729	-706,38
338,942	-452,43
339,154	-403,28
339,367	-556,88
339,579	-411,47
339,792	-1169,22
340,004	-722,76
340,217	-296,78
340,429	274,6
340,641	-653,13
340,854	-1077,06
341,066	-161,62
341,278	-108,37
341,491	-3,93
341,703	-626,51
341,915	-251,73
342,128	524,45
342,34	-454,48
342,552	-933,7
342,764	-233,3
342,977	219,3
343,189	-382,8
343,401	-77,65
343,613	-401,23
343,826	-186,19
344,038	-477,01
344,25	-231,25
344,462	-153,43
344,674	-804,68
344,886	-917,32
345,099	-468,81
345,311	-53,08
345,523	-421,71
345,735	-722,76
345,947	-44,88
346,159	-837,45
346,371	-53,08
346,583	-18,26
346,795	-458,57
347,007	-53,08
347,219	86,19
347,431	-548,68
347,643	-67,41
347,855	-563,02
348,067	-434
348,279	-685,9
348,491	-925,51
348,703	-1,88
348,915	-376,66
349,127	-489,29
349,339	-307,02
349,551	-558,92
349,763	-132,95
349,975	-173,91
350,187	-268,11
350,399	479,4
350,61	-651,08
350,822	-1038,15
351,034	-880,46
351,246	16,55
351,458	-352,08
351,669	-593,74
351,881	-278,35
352,093	243,88
352,305	30,89
352,517	-1124,16
352,728	-739,15
352,94	-520,01
353,152	192,68
353,363	-882,5
353,575	-489,29
353,787	506,02
353,999	481,44
354,21	-245,59
354,422	-925,51
354,633	-266,07
354,845	-116,56
355,057	-548,68
355,268	-595,79
355,48	102,57
355,692	-173,91
355,903	-823,11
356,115	-941,89
356,326	-364,37
356,538	348,33
356,749	-790,35
356,961	-546,64
357,172	-5,97
357,384	-331,6
357,595	184,49
357,807	-626,51
358,018	-542,54
358,23	448,68
358,441	-530,25
358,653	-681,8
358,864	-698,19
359,075	-745,29
359,287	-577,36
359,498	-599,88
359,709	-196,43
359,921	-409,42
360,132	-757,58
360,344	-550,73
360,555	-276,31
360,766	14,51
360,977	-689,99
361,189	-440,14
361,4	-341,84
361,611	-137,04
361,823	-69,46
362,034	-1027,91
362,245	-427,85
362,456	-335,7
362,667	-585,55
362,879	-589,64
363,09	-354,13
363,301	-198,48
363,512	-536,4
363,723	-952,13
363,935	-200,53
364,146	-85,84
364,357	-827,21
364,568	-829,26
364,779	-317,26
364,99	71,85
365,201	92,33
365,412	-259,92
365,623	-173,91
365,834	-462,67
366,045	-509,77
366,256	-595,79
366,467	-180,05
366,678	-257,87
366,889	-612,17
367,1	-833,35
367,311	-225,11
367,522	94,38
367,733	-296,78
367,944	-456,53
368,155	-274,26
368,366	-214,87
368,577	-546,64
368,788	6,31
368,999	-231,25
369,209	-757,58
369,42	-644,94
369,631	450,72
369,842	-753,48
370,053	-206,67
370,264	-773,96
370,474	-1017,67
370,685	225,45
370,896	-415,57
371,107	-206,67
371,317	-190,29
371,528	-364,37
371,739	-130,9
371,95	-798,54
372,16	-450,38
372,371	-689,99
372,582	-302,93
372,792	-485,2
373,003	-556,88
373,214	-937,8
373,424	-565,07
373,635	-577,36
373,846	-182,1
374,056	-849,74
374,267	-370,51
374,477	184,49
374,688	-587,6
374,898	-208,72
375,109	-528,21
375,319	-390,99
375,53	-487,25
375,74	-255,83
375,951	-911,18
376,161	-464,72
376,372	-571,21
376,582	-132,95
376,793	20,65
377,003	-673,61
377,214	-943,94
377,424	-221,01
377,635	790,69
377,845	-407,38
378,055	-499,53
378,266	-687,95
378,476	-651,08
378,686	-659,28
378,897	-851,78
379,107	243,88
379,317	-1,88
379,528	-927,56
379,738	-808,78
379,948	-266,07
380,158	-245,59
380,369	-528,21
380,579	-323,41
380,789	-417,61
380,999	10,41
381,21	-186,19
381,42	-569,16
381,63	-653,13
381,84	282,79
382,05	-347,98
382,261	-296,78
382,471	-411,47
382,681	-159,57
382,891	61,61
383,101	-14,17
383,311	-116,56
383,521	233,64
383,731	-683,85
383,941	-89,94
384,151	-448,33
384,361	-477,01
384,571	-841,54
384,781	-683,85
384,991	-407,38
385,201	323,75
385,411	39,08
385,621	-501,58
385,831	-816,97
386,041	-311,12
386,251	-290,64
386,461	-251,73
386,671	-313,17
386,881	153,77
387,091	-630,6
387,301	243,88
387,511	-122,71
387,72	-436,05
387,93	-474,96
388,14	-794,44
388,35	-104,28
388,56	143,53
388,769	-415,57
388,979	-1333,06
389,189	-196,43
389,399	-421,71
389,609	-327,5
389,818	-388,94
390,028	-173,91
390,238	-132,95
390,447	-829,26
390,657	-659,28
390,867	-239,44
391,076	-436,05
391,286	-522,06
391,496	-616,27
391,705	-554,83
391,915	-307,02
392,125	-479,05
392,334	-716,62
392,544	243,88
392,753	-288,59
392,963	147,62
393,172	-722,76
393,382	-300,88
393,591	39,08
393,801	-1001,29
394,01	-653,13
394,22	-206,67
394,429	14,51
394,639	-739,15
394,848	-319,31
395,058	47,27
395,267	22,7
395,477	-399,18
395,686	-599,88
395,895	1310,87
396,105	-866,12
396,314	-685,9
396,524	-135
396,733	-577,36
396,942	202,92
397,152	-706,38
397,361	-139,09
397,57	-477,01
397,78	137,38
397,989	-620,36
398,198	-28,5
398,407	-405,33
398,617	-241,49
398,826	-888,65
399,035	-864,07
399,244	-550,73
399,453	-563,02
399,663	-700,23
399,872	-956,23
400,081	-495,44
400,29	-44,88
400,499	-1056,58
400,708	-171,86
400,917	-724,81
401,127	-431,95
401,336	-722,76
401,545	299,17
401,754	28,84
401,963	-288,59
402,172	174,25
402,381	-448,33
402,59	-323,41
402,799	-630,6
403,008	-681,8
403,217	-556,88
403,426	-59,22
403,635	-677,71
403,844	-712,52
404,053	-933,7
404,262	82,09
404,471	-30,55
404,68	-440,14
404,888	-282,45
405,097	-784,2
405,306	-8,02
405,515	-587,6
405,724	-427,85
405,933	-124,76
406,142	-139,09
406,35	-1011,53
406,559	-745,29
406,768	-417,61
406,977	213,16
407,185	-788,3
407,394	-577,36
407,603	-372,56
407,812	-479,05
408,02	-141,14
408,229	-659,28
408,438	-517,97
408,646	-882,5
408,855	-845,64
409,064	-907,08
409,272	-1150,79
409,481	-571,21
409,69	-800,59
409,898	-610,12
410,107	-487,25
410,315	350,37
410,524	-421,71
410,733	-436,05
410,941	790,69
411,15	-69,46
411,358	-397,14
411,567	-370,51
411,775	-337,74
411,984	-581,45
412,192	-642,89
412,401	-698,19
412,609	735,39
412,818	37,03
413,026	-380,75
413,234	-1185,6
413,443	254,12
413,651	-927,56
413,86	-1181,51
414,068	161,96
414,276	436,39
414,485	-669,52
414,693	-438,09
414,901	499,88
415,11	-659,28
415,318	-239,44
415,526	-474,96
415,734	-493,39
415,943	-589,64
416,151	-94,04
416,359	-1046,34
416,567	-931,66
416,776	-333,65
416,984	-542,54
417,192	-710,47
417,4	-599,88
417,608	-491,34
417,817	-575,31
418,025	174,25
418,233	-425,81
418,441	-489,29
418,649	-708,43
418,857	-239,44
419,065	-673,61
419,273	-462,67
419,481	-384,85
419,689	-479,05
419,897	-388,94
420,105	-917,32
420,313	-511,82
420,521	-317,26
420,729	-1001,29
420,937	-36,69
421,145	-425,81
421,353	-116,56
421,561	-403,28
421,769	-182,1
421,977	-823,11
422,185	-882,5
422,393	-452,43
422,601	-501,58
422,809	-182,1
423,017	-448,33
423,224	-827,21
423,432	73,9
423,64	-661,32
423,848	-929,61
424,056	-880,46
424,263	-300,88
424,471	-153,43
424,679	-407,38
424,887	-192,34
425,094	417,96
425,302	-282,45
425,51	-1222,47
425,718	-792,39
425,925	-243,54
426,133	-855,88
426,341	-468,81
426,548	-307,02
426,756	-354,13
426,964	55,47
427,171	-616,27
427,379	-812,87
427,586	-401,23
427,794	-251,73
428,001	-655,18
428,209	-313,17
428,417	-91,99
428,624	-343,89
428,832	-581,45
429,039	-130,9
429,247	350,37
429,454	-538,45
429,662	-776,01
429,869	-337,74
430,076	-218,96
430,284	-284,5
430,491	-427,85
430,699	-225,11
430,906	-503,63
431,114	159,91
431,321	-304,98
431,528	-980,81
431,736	-646,99
431,943	-833,35
432,15	-905,03
432,358	-999,24
432,565	-315,22
432,772	-184,15
432,979	-300,88
433,187	-178
433,394	143,53
433,601	-546,64
433,808	-622,41
434,016	-495,44
434,223	-722,76
434,43	-22,36
434,637	-636,75
434,844	-409,42
435,052	-538,45
435,259	-792,39
435,466	-429,9
435,673	-923,46
435,88	139,43
436,087	-296,78
436,294	-40,79
436,501	-378,7
436,708	-186,19
436,915	-460,62
437,122	-194,39
437,329	-905,03
437,537	-984,9
437,743	-522,06
437,95	-239,44
438,157	-415,57
438,364	-495,44
438,571	-870,22
438,778	-784,2
438,985	-677,71
439,192	-565,07
439,399	-477,01
439,606	-855,88
439,813	-104,28
440,02	4,27
440,227	-124,76
440,433	-710,47
440,64	-978,76
440,847	-573,26
441,054	-624,46
441,261	-759,63
441,467	-659,28
441,674	-757,58
441,881	-110,42
442,088	-634,7
442,294	-718,67
442,501	-249,68
442,708	-603,98
442,914	-839,5
443,121	-993,09
443,328	-448,33
443,534	626,85
443,741	-681,8
443,948	-567,12
444,154	-216,91
444,361	245,93
444,568	-628,56
444,774	-726,86
444,981	-526,16
445,187	45,23
445,394	-415,57
445,6	-1007,43
445,807	-106,32
446,013	-634,7
446,22	-1177,41
446,426	-651,08
446,633	-231,25
446,839	-163,67
447,046	-1083,2
447,252	-626,51
447,459	-636,75
447,665	-124,76
447,871	-1410,88
448,078	336,04
448,284	-393,04
448,491	32,94
448,697	-804,68
448,903	-1269,57
449,11	-759,63
449,316	-608,08
449,522	-552,78
449,728	-581,45
449,935	-358,22
450,141	-821,06
450,347	-470,86
450,553	-939,85
450,76	-81,75
450,966	-610,12
451,172	-462,67
451,378	-1048,39
451,584	-1032,01
451,791	-126,8
451,997	-556,88
452,203	-888,65
452,409	182,44
452,615	-696,14
452,821	-466,77
453,027	-1019,72
453,233	-151,38
453,44	-278,35
453,646	-1046,34
453,852	-290,64
454,058	-464,72
454,264	-778,06
454,47	-915,27
454,676	-810,82
454,882	-302,93
455,088	-620,36
455,294	-155,47
455,5	-370,51
455,705	-427,85
455,911	-110,42
456,117	-1443,65
456,323	-259,92
456,529	-583,5
456,735	-853,83
456,941	-1324,87
457,147	-943,94
457,352	-3,93
457,558	-1109,83
457,764	-681,8
457,97	-898,89
458,176	321,7
458,381	-184,15
458,587	-315,22
458,793	-442,19
458,999	-1007,43
459,204	-423,76
459,41	-929,61
459,616	-741,19
459,821	-135
460,027	-264,02
460,233	-538,45
460,438	-206,67
460,644	-628,56
460,85	-347,98
461,055	-548,68
461,261	-739,15
461,466	-905,03
461,672	-388,94
461,878	-618,32
462,083	-311,12
462,289	-505,68
462,494	-407,38
462,7	-741,19
462,905	-636,75
463,111	4,27
463,316	-771,91
463,522	-214,87
463,727	-538,45
463,932	-784,2
464,138	-845,64
464,343	-405,33
464,549	-632,65
464,754	-36,69
464,959	-272,21
465,165	-651,08
465,37	-1042,25
465,575	-759,63
465,781	-298,83
465,986	-1187,65
466,191	-1431,36
466,397	-192,34
466,602	-212,82
466,807	-413,52
467,012	-251,73
467,218	1030,3
467,423	-100,18
467,628	-845,64
467,833	-362,32
468,038	-51,03
468,244	-378,7
468,449	-438,09
468,654	-542,54
468,859	-44,88
469,064	-347,98
469,269	-853,83
469,474	-626,51
469,679	-513,87
469,885	632,99
470,09	-1292,1
470,295	-528,21
470,5	-327,5
470,705	-417,61
470,91	-759,63
471,115	-995,14
471,32	-778,06
471,525	-354,13
471,73	-960,33
471,935	-569,16
472,139	-44,88
472,344	-847,69
472,549	-653,13
472,754	-724,81
472,959	-571,21
473,164	188,58
473,369	-202,58
473,574	-563,02
473,778	-147,28
473,983	-350,03
474,188	-397,14
474,393	-847,69
474,598	-69,46
474,802	-618,32
475,007	-765,77
475,212	-196,43
475,417	-530,25
475,621	-315,22
475,826	-1046,34
476,031	-419,66
476,235	-538,45
476,44	-722,76
476,645	-618,32
476,849	-1017,67
477,054	-913,22
477,259	-67,41
477,463	-816,97
477,668	-5,97
477,872	20,65
478,077	-724,81
478,282	-1003,33
478,486	-778,06
478,691	-368,46
478,895	-261,97
479,1	-198,48
479,304	-182,1
479,509	-755,53
479,713	-304,98
479,918	-575,31
480,122	-722,76
480,326	-1005,38
480,531	-503,63
480,735	-853,83
480,94	-839,5
481,144	-773,96
481,348	-593,74
481,553	-380,75
481,757	-483,15
481,961	-212,82
482,166	-681,8
482,37	-593,74
482,574	-1099,59
482,778	-337,74
482,983	211,11
483,187	-1265,47
483,391	-395,09
483,595	-837,45
483,8	-341,84
484,004	-466,77
484,208	-618,32
484,412	-241,49
484,616	-665,42
484,821	-1056,58
485,025	-614,22
485,229	-927,56
485,433	-124,76
485,637	-687,95
485,841	-446,29
486,045	-380,75
486,249	-235,35
486,453	-143,19
486,657	-929,61
486,861	-982,85
487,065	-917,32
487,269	-749,39
487,473	-1032,01
487,677	-440,14
487,881	-110,42
488,085	-790,35
488,289	-526,16
488,493	-567,12
488,697	145,58
488,901	-651,08
489,105	-368,46
489,309	-276,31
489,512	-208,72
489,716	-247,63
489,92	-362,32
490,124	-100,18
490,328	-552,78
490,531	-706,38
490,735	-763,72
490,939	-304,98
491,143	-704,33
491,346	-948,04
491,55	84,14
491,754	-638,8
491,958	-536,4
492,161	-567,12
492,365	-771,91
492,569	-362,32
492,772	-251,73
492,976	-610,12
493,18	-343,89
493,383	-446,29
493,587	43,18
493,79	-511,82
493,994	-892,74
494,197	96,43
494,401	-751,43
494,605	-597,84
494,808	-646,99
495,012	-548,68
495,215	-110,42
495,419	-581,45
495,622	-902,98
495,825	-417,61
496,029	-874,31
496,232	-186,19
496,436	-477,01
496,639	-157,52
496,843	-802,63
497,046	-665,42
497,249	-751,43
497,453	-251,73
497,656	-986,95
497,859	-157,52
498,063	-505,68
498,266	-976,71
498,469	-581,45
498,673	-724,81
498,876	-1019,72
499,079	-112,47
499,282	-132,95
499,485	-618,32
499,689	-513,87
499,892	-489,29
500,095	-601,93
500,298	-472,91
500,501	-1066,82
500,705	-689,99
500,908	-452,43
501,111	-1095,49
501,314	-630,6
501,517	-466,77
501,72	-44,88
501,923	-712,52
502,126	-862,02
502,329	-595,79
502,532	-345,94
502,735	-859,98
502,938	614,56
503,141	-292,69
503,344	-657,23
503,547	-46,93
503,75	-1251,14
503,953	-270,16
504,156	-63,32
504,359	-651,08
504,562	-1050,44
504,765	-470,86
504,968	-83,8
505,17	-796,49
505,373	-673,61
505,576	-501,58
505,779	-630,6
505,982	-636,75
506,185	-900,94
506,387	-366,42
506,59	-431,95
506,793	-919,37
506,996	-347,98
507,198	196,78
507,401	143,53
507,604	-462,67
507,807	-993,09
508,009	-380,75
508,212	-79,7
508,415	-472,91
508,617	-1216,32
508,82	-560,97
509,022	-632,65
509,225	-958,28
509,428	-870,22
509,63	-196,43
509,833	-550,73
510,035	-143,19
510,238	-825,16
510,44	-231,25
510,643	-1,88
510,845	-765,77
511,048	-474,96
511,25	-401,23
511,453	-694,09
511,655	-632,65
511,858	-206,67
512,06	-143,19
512,262	264,36
512,465	-546,64
512,667	-376,66
512,87	-460,62
513,072	426,15
513,274	-548,68
513,477	-1085,25
513,679	-722,76
513,881	-182,1
514,084	-669,52
514,286	-511,82
514,488	-477,01
514,69	-141,14
514,893	-964,42
515,095	-839,5
515,297	-608,08
515,499	-200,53
515,701	-972,61
515,904	-1271,62
516,106	102,57
516,308	-501,58
516,51	-964,42
516,712	-702,28
516,914	-149,33
517,116	-687,95
517,318	-347,98
517,52	-118,61
517,722	-20,31
517,925	198,82
518,127	-681,8
518,329	-546,64
518,531	-438,09
518,733	-661,32
518,935	-616,27
519,136	-83,8
519,338	-544,59
519,54	-423,76
519,742	-786,25
519,944	-165,71
520,146	123,05
520,348	-204,63
520,55	-429,9
520,752	-59,22
520,954	-26,45
521,155	-397,14
521,357	-184,15
521,559	-198,48
521,761	428,2
521,963	-575,31
522,164	143,53
522,366	-802,63
522,568	-546,64
522,77	8,36
522,971	-958,28
523,173	-1163,08
523,375	-270,16
523,576	-773,96
523,778	-401,23
523,98	-1257,28
524,181	-296,78
524,383	-192,34
524,584	-489,29
524,786	-733
524,988	-941,89
525,189	-118,61
525,391	522,4
525,592	-849,74
525,794	-495,44
525,995	-485,2
526,197	-434
526,398	-286,54
526,6	-71,51
526,801	-454,48
527,003	-1328,96
527,204	-583,5
527,406	-323,41
527,607	-515,92
527,808	-1218,37
528,01	-216,91
528,211	-679,75
528,412	-534,35
528,614	-337,74
528,815	-935,75
529,016	-270,16
529,218	-470,86
529,419	-364,37
529,62	-837,45
529,822	-22,36
530,023	-477,01
530,224	-849,74
530,425	2,22
530,626	-477,01
530,828	-587,6
531,029	-911,18
531,23	-462,67
531,431	-773,96
531,632	73,9
531,833	-735,05
532,035	-575,31
532,236	-630,6
532,437	-128,85
532,638	-182,1
532,839	-716,62
533,04	436,39
533,241	-307,02
533,442	-499,53
533,643	-784,2
533,844	-612,17
534,045	-315,22
534,246	-999,24
534,447	-405,33
534,648	-550,73
534,849	153,77
535,05	-495,44
535,251	-882,5
535,451	-788,3
535,652	-1081,16
535,853	-583,5
536,054	-964,42
536,255	-632,65
536,456	-329,55
536,657	-438,09
536,857	-753,48
537,058	139,43
537,259	-288,59
537,46	-614,22
537,66	-816,97
537,861	-646,99
538,062	-520,01
538,263	-1081,16
538,463	-780,11
538,664	-319,31
538,865	-892,74
539,065	-460,62
539,266	-520,01
539,466	-665,42
539,667	-587,6
539,868	-769,87
540,068	-452,43
540,269	-34,64
540,469	-202,58
540,67	-710,47
540,87	-241,49
541,071	-595,79
541,271	-571,21
541,472	-839,5
541,672	-302,93
541,873	-431,95
542,073	-395,09
542,274	-8,02
542,474	-862,02
542,675	-304,98
542,875	145,58
543,075	-522,06
543,276	-733
543,476	-1113,92
543,676	-147,28
543,877	-630,6
544,077	-733
544,277	-300,88
544,478	-548,68
544,678	-986,95
544,878	-282,45
545,078	-728,91
545,279	-681,8
545,479	-853,83
545,679	-749,39
545,879	164,01
546,079	-452,43
546,28	-591,69
546,48	-692,04
546,68	-194,39
546,88	-350,03
547,08	-831,3
547,28	-896,84
547,48	-1154,88
547,68	-663,37
547,88	-266,07
548,081	-573,26
548,281	-255,83
548,481	274,6
548,681	-1290,05
548,881	-567,12
549,081	-251,73
549,28	-577,36
549,48	-350,03
549,68	-601,93
549,88	-376,66
550,08	-999,24
550,28	-438,09
550,48	139,43
550,68	-372,56
550,88	-507,73
551,08	-1064,77
551,279	61,61
551,479	-411,47
551,679	-94,04
551,879	-1023,81
552,079	-796,49
552,278	-778,06
552,478	-421,71
552,678	-763,72
552,878	-599,88
553,077	-927,56
553,277	-577,36
553,477	-720,71
553,676	-513,87
553,876	-51,03
554,076	-229,2
554,275	-481,1
554,475	-1097,54
554,674	510,11
554,874	-540,49
555,074	-870,22
555,273	-583,5
555,473	-67,41
555,672	-425,81
555,872	-399,18
556,071	-870,22
556,271	235,69
556,47	-180,05
556,67	-622,41
556,869	-724,81
557,068	-384,85
557,268	-227,15
557,467	-972,61
557,667	-634,7
557,866	-706,38
558,065	-405,33
558,265	-599,88
558,464	-864,07
558,663	-515,92
558,863	-479,05
559,062	-1085,25
559,261	-608,08
559,461	157,86
559,66	34,99
559,859	-323,41
560,058	-864,07
560,258	-630,6
560,457	-567,12
560,656	-878,41
560,855	-567,12
561,054	-280,4
561,253	-175,95
561,453	-374,61
561,652	-595,79
561,851	8,36
562,05	-386,9
562,249	-1249,09
562,448	-843,59
562,647	-565,07
562,846	-1122,12
563,045	-845,64
563,244	-659,28
563,443	-329,55
563,642	-286,54
563,841	-350,03
564,04	-927,56
564,239	-245,59
564,438	-161,62
564,637	-771,91
564,836	-241,49
565,035	-421,71
565,234	-900,94
565,432	-427,85
565,631	-1120,07
565,83	-933,7
566,029	-403,28
566,228	-843,59
566,427	-501,58
566,625	-657,23
566,824	-417,61
567,023	-569,16
567,222	-855,88
567,42	-71,51
567,619	-726,86
567,818	-671,56
568,016	-163,67
568,215	-454,48
568,414	-239,44
568,612	-1148,74
568,811	-569,16
569,01	-565,07
569,208	-503,63
569,407	-5,97
569,605	-239,44
569,804	-888,65
570,002	-980,81
570,201	-941,89
570,4	-225,11
570,598	-771,91
570,797	-655,18
570,995	-544,59
571,193	-591,69
571,392	-384,85
571,59	-583,5
571,789	-429,9
571,987	-1025,86
572,186	-223,06
572,384	-722,76
572,582	-673,61
572,781	-692,04
572,979	-431,95
573,177	-356,18
573,376	-345,94
573,574	-808,78
573,772	-681,8
573,971	-862,02
574,169	-1124,16
574,367	149,67
574,565	82,09
574,763	28,84
574,962	-841,54
575,16	-493,39
575,358	-700,23
575,556	77,99
575,754	-943,94
575,952	-470,86
576,151	-374,61
576,349	-366,42
576,547	-1132,36
576,745	192,68
576,943	-876,36
577,141	-1021,77
577,339	-843,59
577,537	-573,26
577,735	422,05
577,933	0,17
578,131	-468,81
578,329	-487,25
578,527	-345,94
578,725	-69,46
578,923	-622,41
579,121	-833,35
579,319	-110,42
579,516	-315,22
579,714	-458,57
579,912	-450,38
580,11	-511,82
580,308	135,34
580,506	-1017,67
580,704	-1244,99
580,901	-616,27
581,099	131,24
581,297	-192,34
581,495	-628,56
581,692	184,49
581,89	-477,01
582,088	121
582,285	-546,64
582,483	-186,19
582,681	-689,99
582,878	-710,47
583,076	-548,68
583,274	-565,07
583,471	428,2
583,669	-716,62
583,866	-755,53
584,064	-534,35
584,262	-462,67
584,459	-1107,78
584,657	-610,12
584,854	-202,58
585,052	-235,35
585,249	-751,43
585,447	-714,57
585,644	-714,57
585,841	102,57
586,039	-491,34
586,236	-431,95
586,434	-583,5
586,631	-827,21
586,828	-921,42
587,026	-882,5
587,223	-728,91
587,42	-233,3
587,618	-12,12
587,815	-558,92
588,012	-22,36
588,21	-411,47
588,407	-620,36
588,604	-175,95
588,801	-429,9
588,999	-532,3
589,196	-696,14
589,393	-821,06
589,59	-626,51
589,787	-730,95
589,984	-558,92
590,182	-591,69
590,379	-694,09
590,576	-77,65
590,773	-853,83
590,97	-620,36
591,167	381,09
591,364	-75,6
591,561	-1054,53
591,758	-587,6
591,955	254,12
592,152	-718,67
592,349	-190,29
592,546	-761,67
592,743	-223,06
592,94	-173,91
593,137	-726,86
593,334	-495,44
593,531	59,56
593,727	-708,43
593,924	-556,88
594,121	-851,78
594,318	-149,33
594,515	71,85
594,712	-477,01
594,908	-626,51
595,105	-923,46
595,302	-452,43
595,499	-593,74
595,696	-257,87
595,892	-81,75
596,089	20,65
596,286	-585,55
596,482	-642,89
596,679	-280,4
596,876	-497,49
597,072	-640,84
597,269	-511,82
597,466	-169,81
597,662	356,52
597,859	-837,45
598,055	-417,61
598,252	-413,52
598,448	80,04
598,645	-81,75
598,841	-227,15
599,038	102,57
599,234	438,44
599,431	-540,49
599,627	-638,8
599,824	-440,14
600,02	-296,78
600,217	-757,58
600,413	-610,12
600,609	-489,29
600,806	-239,44
601,002	-1001,29
601,198	-866,12
601,395	-63,32
601,591	207,02
601,787	260,26
601,984	-448,33
602,18	-126,8
602,376	-278,35
602,572	63,66
602,769	77,99
602,965	-745,29
603,161	-280,4
603,357	-36,69
603,553	-739,15
603,75	-212,82
603,946	-399,18
604,142	-294,74
604,338	-642,89
604,534	-618,32
604,73	204,97
604,926	-276,31
605,122	57,51
605,318	-239,44
605,514	-200,53
605,71	-952,13
605,906	-470,86
606,102	-814,92
606,298	-114,52
606,494	-352,08
606,69	-634,7
606,886	-339,79
607,082	-116,56
607,278	-956,23
607,474	-667,47
607,67	141,48
607,866	-329,55
608,062	-286,54
608,257	-1034,05
608,453	-147,28
608,649	-337,74
608,845	-630,6
609,041	-784,2
609,236	-708,43
609,432	-456,53
609,628	-622,41
609,824	-560,97
610,019	-153,43
610,215	39,08
610,411	-780,11
610,606	-380,75
610,802	110,76
610,998	-421,71
611,193	59,56
611,389	-790,35
611,584	104,62
611,78	-614,22
611,976	-548,68
612,171	-94,04
612,367	-182,1
612,562	-278,35
612,758	-429,9
612,953	-628,56
613,149	-280,4
613,344	-132,95
613,539	-434
613,735	43,18
613,93	-382,8
614,126	-403,28
614,321	-464,72
614,517	-366,42
614,712	340,13
614,907	-10,07
615,103	-274,26
615,298	-546,64
615,493	-771,91
615,688	-595,79
615,884	-638,8
616,079	-1087,3
616,274	-579,4
616,47	-556,88
616,665	-831,3
616,86	-618,32
617,055	-128,85
617,25	-522,06
617,445	-642,89
617,641	-126,8
617,836	-657,23
618,031	-1109,83
618,226	-530,25
618,421	-245,59
618,616	-737,1
618,811	-325,46
619,006	-581,45
619,201	-436,05
619,396	-747,34
619,591	-20,31
619,786	-634,7
619,981	-423,76
620,176	-368,46
620,371	-567,12
620,566	-974,66
620,761	-515,92
620,956	-216,91
621,151	-419,66
621,346	-436,05
621,541	-1136,45
621,735	-182,1
621,93	194,73
622,125	-839,5
622,32	-565,07
622,515	-255,83
622,709	20,65
622,904	-415,57
623,099	-479,05
623,294	-436,05
623,488	77,99
623,683	-532,3
623,878	-812,87
624,072	-452,43
624,267	-280,4
624,462	-569,16
624,656	-1144,64
624,851	-145,24
625,046	-276,31
625,24	-642,89
625,435	-452,43
625,629	286,89
625,824	10,41
626,018	-630,6
626,213	-556,88
626,407	-257,87
626,602	-526,16
626,796	-558,92
626,991	-313,17
627,185	-694,09
627,38	-585,55
627,574	-728,91
627,768	-481,1
627,963	39,08
628,157	-405,33
628,352	-1222,47
628,546	-747,34
628,74	-585,55
628,935	-788,3
629,129	-716,62
629,323	-204,63
629,517	-798,54
629,712	-898,89
629,906	-223,06
630,1	61,61
630,294	-149,33
630,489	-649,04
630,683	-255,83
630,877	-991,05
631,071	-188,24
631,265	-917,32
631,459	-839,5
631,653	-272,21
631,848	-395,09
632,042	-149,33
632,236	-1249,09
632,43	-964,42
632,624	-184,15
632,818	-454,48
633,012	-681,8
633,206	-323,41
633,4	-245,59
633,594	-474,96
633,788	-442,19
633,982	-304,98
634,176	61,61
634,369	-266,07
634,563	-614,22
634,757	-728,91
634,951	-642,89
635,145	227,5
635,339	-589,64
635,533	407,72
635,726	-249,68
635,92	-706,38
636,114	-806,73
636,308	-589,64
636,501	-98,13
636,695	-649,04
636,889	-466,77
637,083	-671,56
637,276	-538,45
637,47	-1142,6
637,664	-651,08
637,857	-663,37
638,051	-300,88
638,244	-290,64
638,438	-317,26
638,632	-610,12
638,825	-456,53
639,019	520,35
639,212	-739,15
639,406	-634,7
639,599	-356,18
639,793	10,41
639,986	-1230,66
640,18	55,47
640,373	-413,52
640,567	-565,07
640,76	-601,93
640,954	-415,57
641,147	-657,23
641,34	-460,62
641,534	-409,42
641,727	-315,22
641,92	4,27
642,114	-69,46
642,307	-167,76
642,5	-452,43
642,694	-917,32
642,887	-649,04
643,08	-872,26
643,273	-593,74
643,467	-245,59
643,66	-626,51
643,853	-606,03
644,046	-466,77
644,239	-620,36
644,432	-505,68
644,626	-964,42
644,819	-986,95
645,012	-806,73
645,205	-59,22
645,398	-188,24
645,591	-249,68
645,784	-526,16
645,977	-1140,55
646,17	-808,78
646,363	-821,06
646,556	-382,8
646,749	-575,31
646,942	-548,68
647,135	-356,18
647,328	-276,31
647,521	-292,69
647,714	-1167,17
647,907	-69,46
648,099	-495,44
648,292	127,14
648,485	-368,46
648,678	-761,67
648,871	166,06
649,064	-202,58
649,256	-872,26
649,449	-1068,87
649,642	-421,71
649,835	-59,22
650,027	-814,92
650,22	-741,19
650,413	-51,03
650,605	-575,31
650,798	-251,73
650,991	-976,71
651,183	-98,13
651,376	-536,4
651,568	-708,43
651,761	-614,22
651,954	-223,06
652,146	-51,03
652,339	-741,19
652,531	-51,03
652,724	-583,5
652,916	-421,71
653,109	-872,26
653,301	-626,51
653,494	-204,63
653,686	-378,7
653,879	-85,84
654,071	-198,48
654,263	-472,91
654,456	-268,11
654,648	-665,42
654,84	-509,77
655,033	-374,61
655,225	315,56
655,417	-1036,1
655,61	-266,07
655,802	-524,11
655,994	45,23
656,186	-827,21
656,379	-96,08
656,571	-141,14
656,763	-345,94
656,955	16,55
657,148	-776,01
657,34	-536,4
657,532	-429,9
657,724	-694,09
657,916	-888,65
658,108	-20,31
658,3	-42,84
658,492	-128,85
658,684	-644,94
658,876	-483,15
659,068	-413,52
659,26	-683,85
659,452	-638,8
659,644	-565,07
659,836	532,64
660,028	-329,55
660,22	-796,49
660,412	-397,14
660,604	176,3
660,796	-356,18
660,988	-755,53
661,18	-229,2
661,372	-356,18
661,563	-366,42
661,755	-806,73
661,947	-474,96
662,139	-427,85
662,331	-235,35
662,522	-1224,51
662,714	-614,22
662,906	-501,58
663,097	-558,92
663,289	-552,78
663,481	-333,65
663,673	-380,75
663,864	-634,7
664,056	-311,12
664,247	-841,54
664,439	121
664,631	-902,98
664,822	-624,46
665,014	-38,74
665,205	-759,63
665,397	-290,64
665,588	-477,01
665,78	-370,51
665,971	-327,5
666,163	-806,73
666,354	-550,73
666,546	-167,76
666,737	-214,87
666,929	-569,16
667,12	-431,95
667,311	88,23
667,503	-63,32
667,694	-251,73
667,885	-831,3
668,077	-505,68
668,268	-241,49
668,459	-999,24
668,651	-118,61
668,842	-579,4
669,033	-141,14
669,224	-452,43
669,416	114,86
669,607	-483,15
669,798	-575,31
669,989	-526,16
670,18	-649,04
670,371	-169,81
670,563	-513,87
670,754	-266,07
670,945	-474,96
671,136	4,27
671,327	-587,6
671,518	-89,94
671,709	-575,31
671,9	-65,36
672,091	344,23
672,282	-868,17
672,473	-980,81
672,664	-77,65
672,855	-192,34
673,046	-769,87
673,237	30,89
673,428	-368,46
673,619	84,14
673,809	-739,15
674	-587,6
674,191	278,69
674,382	-286,54
674,573	-591,69
674,764	-503,63
674,954	-139,09
675,145	110,76
675,336	-1120,07
675,527	-411,47
675,717	-388,94
675,908	-642,89
676,099	-610,12
676,289	-661,32
676,48	-567,12
676,671	-651,08
676,861	-870,22
677,052	-714,57
677,243	-292,69
677,433	-323,41
677,624	-331,6
677,814	-307,02
678,005	-42,84
678,195	108,71
678,386	-276,31
678,576	-909,13
678,767	-509,77
678,957	-534,35
679,148	-601,93
679,338	-929,61
679,529	143,53
679,719	-319,31
679,909	-233,3
680,1	-612,17
680,29	-495,44
680,481	-415,57
680,671	-501,58
680,861	-800,59
681,052	-284,5
681,242	-853,83
681,432	-536,4
681,622	-937,8
681,813	-139,09
682,003	-292,69
682,193	-806,73
682,383	-1064,77
682,573	-358,22
682,764	-200,53
682,954	-700,23
683,144	-225,11
683,334	-94,04
683,524	-296,78
683,714	-163,67
683,904	-702,28
684,094	-243,54
684,284	-286,54
684,474	-384,85
684,664	8,36
684,854	-520,01
685,044	-413,52
685,234	-864,07
685,424	-401,23
685,614	-526,16
685,804	53,42
685,994	-913,22
686,184	112,81
686,374	-180,05
686,564	-616,27
686,753	-141,14
686,943	-438,09
687,133	-581,45
687,323	-481,1
687,513	-440,14
687,702	-708,43
687,892	-452,43
688,082	-235,35
688,272	-692,04
688,461	-765,77
688,651	-94,04
688,841	22,7
689,03	-583,5
689,22	-909,13
689,41	-143,19
689,599	-8,02
689,789	-520,01
689,979	22,7
690,168	-393,04
690,358	-137,04
690,547	-618,32
690,737	-417,61
690,926	-347,98
691,116	-75,6
691,305	-110,42
691,495	-583,5
691,684	-358,22
691,874	446,63
692,063	-601,93
692,252	-657,23
692,442	75,95
692,631	129,19
692,82	-556,88
693,01	-266,07
693,199	168,1
693,388	-122,71
693,578	-868,17
693,767	-3,93
693,956	43,18
694,146	-34,64
694,335	-780,11
694,524	-1013,57
694,713	354,47
694,902	-454,48
695,092	-565,07
695,281	139,43
695,47	-450,38
695,659	-573,26
695,848	-563,02
696,037	-347,98
696,226	-284,5
696,415	-235,35
696,604	387,24
696,793	-419,66
696,982	-55,12
697,171	-116,56
697,36	-917,32
697,549	-741,19
697,738	-640,84
697,927	-325,46
698,116	-554,83
698,305	14,51
698,494	-159,57
698,683	149,67
698,872	-315,22
699,061	-421,71
699,25	-270,16
699,438	22,7
699,627	-964,42
699,816	297,13
700,005	-276,31
700,193	-642,89
700,382	-610,12
700,571	-466,77
700,76	444,58
700,948	-477,01
701,137	-749,39
701,326	151,72
701,514	-352,08
701,703	-53,08
701,892	-595,79
702,08	-630,6
702,269	2,22
702,457	231,59
702,646	-511,82
702,834	-784,2
703,023	53,42
703,212	477,35
703,4	-505,68
703,589	-421,71
703,777	-585,55
703,965	-847,69
704,154	-782,15
704,342	-710,47
704,531	-264,02
704,719	-419,66
704,907	-137,04
705,096	-352,08
705,284	-151,38
705,472	-462,67
705,661	-352,08
705,849	-403,28
706,037	0,17
706,226	116,9
706,414	-300,88
706,602	-528,21
706,79	-458,57
706,979	12,46
707,167	-329,55
707,355	-618,32
707,543	-274,26
707,731	-343,89
707,919	-448,33
708,107	-1099,59
708,296	-184,15
708,484	-759,63
708,672	-460,62
708,86	-509,77
709,048	-159,57
709,236	-102,23
709,424	-810,82
709,612	-528,21
709,8	-550,73
709,988	-372,56
710,176	-511,82
710,364	-585,55
710,551	-374,61
710,739	-558,92
710,927	-804,68
711,115	-583,5
711,303	-204,63
711,491	-118,61
711,679	-694,09
711,866	-268,11
712,054	-569,16
712,242	-311,12
712,43	-272,21
712,617	-853,83
712,805	51,37
712,993	26,79
713,181	-786,25
713,368	16,55
713,556	-223,06
713,744	-450,38
713,931	-225,11
714,119	-257,87
714,306	319,65
714,494	-413,52
714,682	-681,8
714,869	-706,38
715,057	-470,86
715,244	-405,33
715,432	-276,31
715,619	-769,87
715,807	-384,85
715,994	-388,94
716,182	-747,34
716,369	-462,67
716,556	-431,95
716,744	-268,11
716,931	-792,39
717,119	-1107,78
717,306	-300,88
717,493	239,78
717,681	-640,84
717,868	-989
718,055	114,86
718,242	153,77
718,43	-726,86
718,617	-585,55
718,804	-108,37
718,991	170,15
719,179	-993,09
719,366	-405,33
719,553	-171,86
719,74	-223,06
719,927	-708,43
720,114	-390,99
720,301	-651,08
720,488	-337,74
720,676	-970,57
720,863	4,27
721,05	284,84
721,237	153,77
721,424	-536,4
721,611	-704,33
721,798	-477,01
721,985	-178
722,172	-130,9
722,358	-704,33
722,545	-395,09
722,732	-313,17
722,919	-272,21
723,106	-847,69
723,293	-243,54
723,48	-1,88
723,667	-456,53
723,853	-700,23
724,04	-221,01
724,227	-261,97
724,414	-671,56
724,6	-405,33
724,787	-454,48
724,974	280,74
725,161	-128,85
725,347	-767,82
725,534	-274,26
725,72	-132,95
725,907	-114,52
726,094	-948,04
726,28	-458,57
726,467	-786,25
726,653	-882,5
726,84	-372,56
727,027	-96,08
727,213	168,1
727,4	24,75
727,586	-591,69
727,773	331,94
727,959	-411,47
728,145	-280,4
728,332	-642,89
728,518	-294,74
728,705	-118,61
728,891	-733
729,077	-272,21
729,264	-5,97
729,45	-71,51
729,636	-960,33
729,823	-757,58
730,009	-14,17
730,195	-20,31
730,382	-132,95
730,568	-808,78
730,754	-3,93
730,94	-85,84
731,126	-726,86
731,313	-1025,86
731,499	0,17
731,685	47,27
731,871	-67,41
732,057	-233,3
732,243	-128,85
732,429	-239,44
732,615	-386,9
732,801	-599,88
732,987	463,01
733,173	-225,11
733,359	-636,75
733,545	-38,74
733,731	41,13
733,917	8,36
734,103	-468,81
734,289	-350,03
734,475	-110,42
734,661	-227,15
734,847	-739,15
735,033	-634,7
735,219	-237,39
735,404	-495,44
735,59	-571,21
735,776	-788,3
735,962	-229,2
736,148	69,8
736,333	-405,33
736,519	-571,21
736,705	-104,28
736,89	266,41
737,076	-778,06
737,262	-517,97
737,447	-593,74
737,633	-347,98
737,819	-798,54
738,004	-337,74
738,19	235,69
738,375	-153,43
738,561	-278,35
738,747	-683,85
738,932	-114,52
739,118	-268,11
739,303	-233,3
739,489	-206,67
739,674	-354,13
739,859	-317,26
740,045	-542,54
740,23	-466,77
740,416	-288,59
740,601	-206,67
740,786	-276,31
740,972	-859,98
741,157	-302,93
741,342	-405,33
741,528	-368,46
741,713	-266,07
741,898	-221,01
742,084	-214,87
742,269	-470,86
742,454	-583,5
742,639	327,85
742,824	-46,93
743,01	-515,92
743,195	-866,12
743,38	-73,56
743,565	59,56
743,75	-444,24
743,935	28,84
744,12	-528,21
744,305	-235,35
744,49	-190,29
744,675	-157,52
744,86	-120,66
745,045	260,26
745,23	-902,98
745,415	-700,23
745,6	-151,38
745,785	-395,09
745,97	-12,12
746,155	-401,23
746,34	104,62
746,525	-167,76
746,71	-819,02
746,895	-575,31
747,079	-438,09
747,264	-171,86
747,449	-298,83
747,634	-515,92
747,819	434,34
748,003	-249,68
748,188	-667,47
748,373	-102,23
748,557	-456,53
748,742	391,33
748,927	-386,9
749,111	-223,06
749,296	176,3
749,481	-253,78
749,665	-761,67
749,85	-622,41
750,034	-118,61
750,219	706,72
750,404	-618,32
750,588	-458,57
750,773	-427,85
750,957	-325,46
751,141	-671,56
751,326	129,19
751,51	-210,77
751,695	-636,75
751,879	434,34
752,064	67,75
752,248	-495,44
752,432	-186,19
752,617	-712,52
752,801	180,39
752,985	290,98
753,17	182,44
753,354	-722,76
753,538	-474,96
753,722	454,82
753,907	-141,14
754,091	-724,81
754,275	-546,64
754,459	-151,38
754,643	-18,26
754,828	-474,96
755,012	-491,34
755,196	-120,66
755,38	221,35
755,564	-427,85
755,748	-345,94
755,932	32,94
756,116	168,1
756,3	-421,71
756,484	-292,69
756,668	-192,34
756,852	106,67
757,036	-769,87
757,22	-354,13
757,404	-468,81
757,588	-399,18
757,772	-372,56
757,956	-91,99
758,14	-124,76
758,323	-153,43
758,507	-526,16
758,691	-526,16
758,875	-286,54
759,059	73,9
759,242	-692,04
759,426	-370,51
759,61	-214,87
759,794	-231,25
759,977	135,34
760,161	3158,14
760,345	553,12
760,528	336,04
760,712	-354,13
760,895	-198,48
761,079	497,83
761,263	-282,45
761,446	-589,64
761,63	-864,07
761,813	-681,8
761,997	-282,45
762,18	-149,33
762,364	379,04
762,547	-288,59
762,731	-282,45
762,914	-132,95
763,098	-720,71
763,281	194,73
763,464	-30,55
763,648	-241,49
763,831	-493,39
764,015	-251,73
764,198	-44,88
764,381	-427,85
764,564	-886,6
764,748	-282,45
764,931	481,44
765,114	-718,67
765,297	-104,28
765,481	-171,86
765,664	192,68
765,847	-636,75
766,03	-380,75
766,213	6,31
766,397	-198,48
766,58	-444,24
766,763	-67,41
766,946	-28,5
767,129	-329,55
767,312	-675,66
767,495	-677,71
767,678	-259,92
767,861	-282,45
768,044	-673,61
768,227	22,7
768,41	-85,84
768,593	-413,52
768,776	-157,52
768,959	-393,04
769,142	-26,45
769,324	84,14
769,507	-567,12
769,69	-290,64
769,873	-188,24
770,056	448,68
770,239	-276,31
770,421	-212,82
770,604	-118,61
770,787	-339,79
770,97	-419,66
771,152	-692,04
771,335	-298,83
771,518	-212,82
771,7	-763,72
771,883	-280,4
772,066	-223,06
772,248	417,96
772,431	-266,07
772,613	-526,16
772,796	112,81
772,978	-223,06
773,161	-477,01
773,343	-649,04
773,526	-48,98
773,708	137,38
773,891	-614,22
774,073	-581,45
774,256	-513,87
774,438	168,1
774,621	-802,63
774,803	-593,74
774,985	18,6
775,168	260,26
775,35	-268,11
775,532	-415,57
775,715	-44,88
775,897	137,38
776,079	-472,91
776,261	-491,34
776,444	274,6
776,626	-26,45
776,808	190,63
776,99	-806,73
777,173	-83,8
777,355	-110,42
777,537	-292,69
777,719	-399,18
777,901	-94,04
778,083	-474,96
778,265	202,92
778,447	-560,97
778,629	-247,63
778,811	-159,57
778,993	-192,34
779,175	-479,05
779,357	-337,74
779,539	-282,45
779,721	57,51
779,903	-509,77
780,085	454,82
780,267	37,03
780,449	-464,72
780,631	-464,72
780,812	106,67
780,994	-331,6
781,176	-659,28
781,358	-608,08
781,54	198,82
781,721	366,76
781,903	-614,22
782,085	-511,82
782,267	-10,07
782,448	-272,21
782,63	-329,55
782,812	-362,32
782,993	-184,15
783,175	14,51
783,357	-364,37
783,538	28,84
783,72	-368,46
783,901	-104,28
784,083	59,56
784,264	-132,95
784,446	2,22
784,627	-237,39
784,809	-726,86
784,99	-372,56
785,172	589,99
785,353	-411,47
785,535	-253,78
785,716	-501,58
785,897	-229,2
786,079	-151,38
786,26	-495,44
786,441	94,38
786,623	-436,05
786,804	-139,09
786,985	-411,47
787,167	-358,22
787,348	-241,49
787,529	-20,31
787,71	-81,75
787,891	51,37
788,073	-304,98
788,254	-395,09
788,435	-370,51
788,616	-339,79
788,797	-413,52
788,978	-239,44
789,159	-307,02
789,34	243,88
789,522	145,58
789,703	-192,34
789,884	-223,06
790,065	164,01
790,246	-3,93
790,427	-421,71
790,607	-368,46
790,788	-175,95
790,969	-493,39
791,15	-22,36
791,331	-509,77
791,512	-608,08
791,693	-415,57
791,874	-503,63
792,054	796,83
792,235	63,66
792,416	-167,76
792,597	-560,97
792,778	96,43
792,958	-446,29
793,139	-83,8
793,32	-741,19
793,5	-599,88
793,681	-313,17
793,862	182,44
794,042	166,06
794,223	-448,33
794,404	-530,25
794,584	-419,66
794,765	-206,67
794,945	8,36
795,126	-210,77
795,306	-477,01
795,487	-65,36
795,667	-347,98
795,848	-495,44
796,028	127,14
796,209	-118,61
796,389	243,88
796,57	-171,86
796,75	-403,28
796,93	-81,75
797,111	-290,64
797,291	-384,85
797,471	-104,28
797,652	262,31
797,832	-292,69
798,012	-380,75
798,192	-10,07
798,373	-511,82
798,553	-120,66
798,733	-24,4
798,913	-434
799,093	452,77
799,274	-243,54
799,454	-405,33
799,634	219,3
799,814	516,26
799,994	-368,46
800,174	-104,28
800,354	379,04
800,534	-143,19
800,714	-565,07
800,894	-579,4
801,074	92,33
801,254	-571,21
801,434	301,22
801,614	-548,68
801,794	-268,11
801,974	28845,81
802,154	-214,87
802,334	14,51
802,514	-102,23
802,693	-427,85
802,873	-659,28
803,053	-67,41
803,233	-198,48
803,413	-167,76
803,592	-501,58
803,772	-352,08
803,952	-554,83
804,131	-302,93
804,311	-214,87
804,491	-200,53
804,67	272,55
804,85	-581,45
805,03	2,22
805,209	164,01
805,389	-282,45
805,568	-135
805,748	-225,11
805,928	-141,14
806,107	112,81
806,287	-347,98
806,466	-135
806,646	426,15
806,825	168,1
807,004	-137,04
807,184	-225,11
807,363	63,66
807,543	-225,11
807,722	-376,66
807,901	284,84
808,081	-538,45
808,26	-356,18
808,439	-333,65
808,619	-374,61
808,798	-264,02
808,977	53,42
809,156	178,34
809,336	-241,49
809,515	-534,35
809,694	-403,28
809,873	-65,36
810,052	-601,93
810,231	157,86
810,411	69,8
810,59	18,6
810,769	307,37
810,948	-163,67
811,127	-286,54
811,306	-313,17
811,485	-253,78
811,664	92,33
811,843	41,13
812,022	-147,28
812,201	-556,88
812,38	-589,64
812,559	22,7
812,737	28,84
812,916	-524,11
813,095	77,99
813,274	-124,76
813,453	135,34
813,632	-378,7
813,811	-282,45
813,989	-208,72
814,168	-311,12
814,347	-532,3
814,526	-329,55
814,704	-61,27
814,883	133,29
815,062	-538,45
815,24	-270,16
815,419	-466,77
815,598	-173,91
815,776	-239,44
815,955	-642,89
816,133	-415,57
816,312	24,75
816,49	-341,84
816,669	-434
816,847	211,11
817,026	-14,17
817,204	-245,59
817,383	-257,87
817,561	65,71
817,74	528,55
817,918	-34,64
818,097	-370,51
818,275	-67,41
818,453	-483,15
818,632	-20,31
818,81	-454,48
818,988	-208,72
819,167	-298,83
819,345	-554,83
819,523	-333,65
819,701	321,7
819,879	-380,75
820,058	-128,85
820,236	-399,18
820,414	-26,45
820,592	-200,53
820,77	-493,39
820,948	-550,73
821,127	-223,06
821,305	268,45
821,483	-603,98
821,661	-618,32
821,839	37,03
822,017	-120,66
822,195	-556,88
822,373	-411,47
822,551	16,55
822,729	20,65
822,907	-280,4
823,085	-135
823,262	-180,05
823,44	-327,5
823,618	-235,35
823,796	-466,77
823,974	473,25
824,152	-331,6
824,329	-182,1
824,507	-221,01
824,685	-192,34
824,863	4,27
825,04	-358,22
825,218	-472,91
825,396	-149,33
825,574	-223,06
825,751	-79,7
825,929	-384,85
826,107	-429,9
826,284	-40,79
826,462	-601,93
826,639	-206,67
826,817	80,04
826,994	-18,26
827,172	-444,24
827,349	-237,39
827,527	-32,6
827,704	-327,5
827,882	131,24
828,059	-722,76
828,237	98,47
828,414	-470,86
828,591	-251,73
828,769	-444,24
828,946	-294,74
829,124	94,38
829,301	-61,27
829,478	-687,95
829,655	-182,1
829,833	-132,95
830,01	-694,09
830,187	-182,1
830,364	123,05
830,542	209,06
830,719	-300,88
830,896	69,8
831,073	22,7
831,25	114,86
831,427	-638,8
831,604	-540,49
831,782	-243,54
831,959	0,17
832,136	-73,56
832,313	-253,78
832,49	96,43
832,667	-249,68
832,844	-628,56
833,021	256,17
833,198	69,8
833,374	450,72
833,551	-376,66
833,728	-450,38
833,905	-434
834,082	-304,98
834,259	102,57
834,436	-266,07
834,612	-122,71
834,789	393,38
834,966	-495,44
835,143	-606,03
835,319	-51,03
835,496	-143,19
835,673	-362,32
835,85	-46,93
836,026	288,93
836,203	280,74
836,38	-546,64
836,556	-130,9
836,733	-425,81
836,909	284,84
837,086	-343,89
837,262	-227,15
837,439	-380,75
837,616	383,14
837,792	-114,52
837,968	-397,14
838,145	-501,58
838,321	-114,52
838,498	-501,58
838,674	143,53
838,851	-130,9
839,027	143,53
839,203	-44,88
839,38	-261,97
839,556	-280,4
839,732	-315,22
839,909	-526,16
840,085	-395,09
840,261	307,37
840,437	202,92
840,614	-431,95
840,79	-175,95
840,966	843,93
841,142	196,78
841,318	-124,76
841,494	-558,92
841,671	-143,19
841,847	-126,8
842,023	-591,69
842,199	-440,14
842,375	104,62
842,551	-206,67
842,727	-669,52
842,903	16,55
843,079	10,41
843,255	489,64
843,431	-440,14
843,607	495,78
843,783	186,54
843,959	-51,03
844,134	-14,17
844,31	301,22
844,486	24,75
844,662	-157,52
844,838	-417,61
845,013	-460,62
845,189	245,93
845,365	-253,78
845,541	-266,07
845,716	168,1
845,892	250,02
846,068	417,96
846,244	-331,6
846,419	-616,27
846,595	448,68
846,77	596,13
846,946	-266,07
847,122	-309,07
847,297	61,61
847,473	1933,45
847,648	-157,52
847,824	-153,43
847,999	26,79
848,175	24,75
848,35	401,57
848,526	92,33
848,701	-77,65
848,876	192,68
849,052	692,38
849,227	-212,82
849,403	-71,51
849,578	-141,14
849,753	-85,84
849,929	-540,49
850,104	-67,41
850,279	24,75
850,454	-214,87
850,63	151,72
850,805	-5,97
850,98	180,39
851,155	14,51
851,33	94,38
851,505	454,82
851,681	225,45
851,856	-259,92
852,031	-40,79
852,206	1063,07
852,381	-360,27
852,556	-370,51
852,731	-593,74
852,906	-16,21
853,081	-253,78
853,256	-233,3
853,431	-354,13
853,606	344,23
853,781	-214,87
853,956	-626,51
854,131	-188,24
854,305	209,06
854,48	379,04
854,655	-626,51
854,83	-182,1
855,005	307,37
855,18	63,66
855,354	-188,24
855,529	-495,44
855,704	-153,43
855,879	198,82
856,053	-388,94
856,228	174,25
856,403	-71,51
856,577	356,52
856,752	-591,69
856,926	-501,58
857,101	301,22
857,276	-69,46
857,45	-178
857,625	88,23
857,799	135,34
857,974	125,1
858,148	-329,55
858,323	352,42
858,497	221,35
858,672	49,32
858,846	-182,1
859,02	-61,27
859,195	129,19
859,369	970,91
859,543	526,5
859,718	-79,7
859,892	-108,37
860,066	448,68
860,241	-481,1
860,415	-294,74
860,589	-249,68
860,763	-233,3
860,938	100,52
861,112	6,31
861,286	-169,81
861,46	207,02
861,634	-288,59
861,808	-503,63
861,982	458,92
862,157	377
862,331	-208,72
862,505	-681,8
862,679	-46,93
862,853	-331,6
863,027	-282,45
863,201	-259,92
863,375	221,35
863,549	-210,77
863,722	180,39
863,896	372,9
864,07	141,48
864,244	43,18
864,418	118,95
864,592	-75,6
864,766	-167,76
864,939	-202,58
865,113	-317,26
865,287	-206,67
865,461	-264,02
865,634	243,88
865,808	-368,46
865,982	-89,94
866,156	-235,35
866,329	-280,4
866,503	-112,47
866,676	-200,53
866,85	-128,85
867,024	-323,41
867,197	-46,93
867,371	-315,22
867,544	356,52
867,718	-157,52
867,891	-106,32
868,065	-91,99
868,238	243,88
868,412	225,45
868,585	-69,46
868,759	561,31
868,932	-249,68
869,105	426,15
869,279	-239,44
869,452	-591,69
869,625	30,89
869,799	-323,41
869,972	-135
870,145	-182,1
870,319	727,2
870,492	-63,32
870,665	-130,9
870,838	-42,84
871,011	-225,11
871,185	-132,95
871,358	-294,74
871,531	219,3
871,704	-18,26
871,877	184,49
872,05	-485,2
872,223	-307,02
872,396	133,29
872,569	118,95
872,742	-61,27
872,915	-59,22
873,088	-249,68
873,261	233,64
873,434	10,41
873,607	-5,97
873,78	561,31
873,953	-104,28
874,126	-67,41
874,299	-173,91
874,471	708,77
874,644	297,13
874,817	125,1
874,99	215,21
875,163	-94,04
875,335	-167,76
875,508	-110,42
875,681	-325,46
875,853	215,21
876,026	18,6
876,199	-378,7
876,371	-366,42
876,544	325,8
876,717	-202,58
876,889	-329,55
877,062	258,21
877,234	-79,7
877,407	143,53
877,579	-462,67
877,752	194,73
877,924	616,61
878,097	-53,08
878,269	-423,76
878,442	440,48
878,614	157,86
878,786	-108,37
878,959	-386,9
879,131	-237,39
879,303	-440,14
879,476	280,74
879,648	299,17
879,82	-356,18
879,993	-3,93
880,165	47,27
880,337	-247,63
880,509	-173,91
880,681	34,99
880,854	-204,63
881,026	-24,4
881,198	305,32
881,37	141,48
881,542	98,47
881,714	-132,95
881,886	-309,07
882,058	37,03
882,23	-42,84
882,402	217,26
882,574	-122,71
882,746	0,17
882,918	-1,88
883,09	-108,37
883,262	6,31
883,434	807,07
883,606	-98,13
883,778	-225,11
883,95	96,43
884,122	-124,76
884,293	321,7
884,465	-16,21
884,637	45,23
884,809	-126,8
884,98	1317,01
885,152	-378,7
885,324	-186,19
885,496	-214,87
885,667	-69,46
885,839	-489,29
886,011	-405,33
886,182	471,2
886,354	192,68
886,525	-132,95
886,697	-511,82
886,869	-272,21
887,04	-18,26
887,212	194,73
887,383	-94,04
887,555	-55,12
887,726	-122,71
887,897	-333,65
888,069	96,43
888,24	544,93
888,412	41,13
888,583	-288,59
888,754	-323,41
888,926	18,6
889,097	-1,88
889,268	-212,82
889,44	-477,01
889,611	213,16
889,782	-225,11
889,953	-407,38
890,125	-208,72
890,296	-75,6
890,467	256,17
890,638	-259,92
890,809	-376,66
890,98	327,85
891,151	397,48
891,323	2,22
891,494	-32,6
891,665	411,81
891,836	381,09
892,007	151,72
892,178	307,37
892,349	268,45
892,52	-94,04
892,691	-53,08
892,862	-362,32
893,032	-284,5
893,203	-26,45
893,374	-106,32
893,545	-280,4
893,716	309,41
893,887	67,75
894,057	-380,75
894,228	-132,95
894,399	-118,61
894,57	354,47
894,74	-132,95
894,911	-102,23
895,082	247,97
895,253	164,01
895,423	-241,49
895,594	598,18
895,764	391,33
895,935	-165,71
896,106	77,99
896,276	-380,75
896,447	77,99
896,617	256,17
896,788	-544,59
896,958	-208,72
897,129	317,61
897,299	-159,57
897,47	-313,17
897,64	-122,71
897,81	118,95
897,981	962,72
898,151	243,88
898,322	39,08
898,492	747,68
898,662	-85,84
898,832	-53,08
899,003	22,7
899,173	358,57
899,343	-141,14
899,513	-147,28
